Data from QEP013861_14-43-56-328.txt Node
Date: Tue Jul 09 14:43:56 EDT 2019
User: xiyang
Spectrometer: QEP01386
Trigger mode: 4
Integration Time (sec): 2.000000E-1
Scans to average: 1
Electric dark correction enabled: false
Nonlinearity correction enabled: false
Boxcar width: 0
XAxis mode: Wavelengths
Number of Pixels in Spectrum: 1044
>>>>>Begin Spectral Data<<<<<
629.243	1699
629.421	1690
629.599	1689
629.777	1684
629.955	14693
630.132	14750
630.31	15075
630.488	15397
630.666	15469
630.843	15376
631.021	15283
631.199	15209
631.376	15138
631.554	15032
631.731	15061
631.909	15245
632.086	15534
632.264	15749
632.441	15989
632.618	16027
632.796	16010
632.973	16053
633.15	16010
633.327	16046
633.504	15713
633.682	15892
633.859	16016
634.036	16298
634.213	16198
634.39	16311
634.567	16546
634.744	16472
634.921	16638
635.098	16627
635.274	16575
635.451	16565
635.628	16502
635.805	16389
635.982	16386
636.158	16417
636.335	16696
636.511	16888
636.688	17036
636.865	17073
637.041	17147
637.218	17220
637.394	17318
637.571	17253
637.747	17293
637.923	17194
638.1	17154
638.276	17302
638.452	17295
638.628	17465
638.805	17496
638.981	17294
639.157	17172
639.333	17008
639.509	17250
639.685	17059
639.861	16943
640.037	16923
640.213	17292
640.389	17252
640.565	17119
640.74	16901
640.916	16890
641.092	16987
641.268	17149
641.443	17279
641.619	17152
641.795	16990
641.97	16915
642.146	17097
642.321	17496
642.497	17552
642.672	17458
642.848	17276
643.023	17100
643.199	17203
643.374	17314
643.549	17255
643.724	17084
643.9	16929
644.075	17257
644.25	17486
644.425	17496
644.6	17078
644.775	16881
644.95	16786
645.125	16949
645.3	16964
645.475	16842
645.65	16717
645.825	16649
646	16495
646.175	16264
646.349	16349
646.524	16621
646.699	16457
646.874	16362
647.048	16209
647.223	15967
647.397	15997
647.572	15960
647.746	16304
647.921	16065
648.095	15927
648.27	15896
648.444	16058
648.618	16382
648.793	16301
648.967	16017
649.141	15368
649.315	14989
649.49	14936
649.664	15430
649.838	16134
650.012	16420
650.186	16517
650.36	16594
650.534	16699
650.708	16728
650.882	16521
651.056	16464
651.23	16009
651.403	15446
651.577	15116
651.751	15477
651.925	15947
652.098	16301
652.272	16235
652.446	16313
652.619	16365
652.793	16338
652.966	16368
653.14	16093
653.313	16044
653.487	16218
653.66	16453
653.833	16393
654.007	16235
654.18	15966
654.353	15716
654.526	15577
654.7	15599
654.873	15602
655.046	15656
655.219	15335
655.392	15021
655.565	14921
655.738	14335
655.911	13160
656.084	11492
656.257	11191
656.43	12890
656.602	14465
656.775	14766
656.948	14872
657.121	14991
657.293	14942
657.466	15130
657.639	15452
657.811	15580
657.984	15491
658.156	15397
658.329	15282
658.501	15245
658.674	15268
658.846	15380
659.018	15176
659.191	14784
659.363	14739
659.535	14948
659.707	15118
659.88	15061
660.052	15158
660.224	15008
660.396	14863
660.568	14861
660.74	14718
660.912	14674
661.084	14771
661.256	14812
661.428	14742
661.6	14684
661.771	14685
661.943	14592
662.115	14477
662.287	14481
662.458	14360
662.63	14226
662.802	14191
662.973	14069
663.145	13767
663.316	13538
663.488	13629
663.659	13773
663.831	13733
664.002	13682
664.174	13507
664.345	13394
664.516	13489
664.687	13466
664.859	13438
665.03	13481
665.201	13382
665.372	13322
665.543	13235
665.714	13164
665.885	13110
666.056	12844
666.227	12743
666.398	12644
666.569	12802
666.74	12792
666.911	12668
667.082	12689
667.252	12718
667.423	12658
667.594	12294
667.764	12111
667.935	12307
668.106	12424
668.276	12423
668.447	12402
668.617	12325
668.788	12292
668.958	12269
669.129	12209
669.299	12198
669.469	12029
669.64	11932
669.81	11942
669.98	11985
670.15	11961
670.321	11782
670.491	11796
670.661	11862
670.831	11835
671.001	11766
671.171	11749
671.341	11633
671.511	11498
671.681	11367
671.851	11468
672.02	11483
672.19	11566
672.36	11552
672.53	11556
672.699	11496
672.869	11646
673.039	11629
673.208	11565
673.378	11494
673.547	11471
673.717	11465
673.886	11486
674.056	11411
674.225	11412
674.395	11437
674.564	11371
674.733	11377
674.903	11259
675.072	11330
675.241	11344
675.41	11356
675.579	11396
675.748	11359
675.917	11490
676.087	11475
676.256	11379
676.425	11451
676.593	11279
676.762	11229
676.931	11342
677.1	11342
677.269	11325
677.438	11447
677.606	11425
677.775	11495
677.944	11469
678.112	11442
678.281	11333
678.45	11371
678.618	11375
678.787	11432
678.955	11512
679.124	11497
679.292	11528
679.46	11373
679.629	11517
679.797	11520
679.965	11554
680.134	11641
680.302	11513
680.47	11627
680.638	11631
680.806	11672
680.974	11663
681.142	11764
681.31	11844
681.478	11907
681.646	11891
681.814	11969
681.982	11973
682.15	12102
682.318	12114
682.486	12307
682.653	12301
682.821	12172
682.989	12376
683.156	12488
683.324	12529
683.492	12586
683.659	12596
683.827	12464
683.994	12417
684.162	12341
684.329	12656
684.496	13172
684.664	13245
684.831	13356
684.998	13455
685.166	13512
685.333	13498
685.5	13464
685.667	13669
685.834	13864
686.001	13978
686.168	14071
686.335	14243
686.502	13949
686.669	11340
686.836	9968
687.003	10624
687.17	11197
687.337	11901
687.504	12452
687.67	13193
687.837	13892
688.004	14950
688.17	15355
688.337	15096
688.504	14679
688.67	14887
688.837	14732
689.003	15250
689.17	15077
689.336	15664
689.502	15619
689.669	16032
689.835	16681
690.001	16192
690.168	17249
690.334	16831
690.5	17220
690.666	18033
690.832	17703
690.998	18741
691.164	18846
691.33	18172
691.496	19162
691.662	19519
691.828	19555
691.994	20373
692.16	20123
692.326	19464
692.492	20318
692.657	20968
692.823	19919
692.989	20135
693.155	20794
693.32	20742
693.486	21809
693.651	21887
693.817	21114
693.982	20296
694.148	21013
694.313	22201
694.479	23351
694.644	22642
694.809	22655
694.975	23641
695.14	24255
695.305	24331
695.47	24087
695.635	23969
695.801	25113
695.966	24672
696.131	25718
696.296	26908
696.461	27113
696.626	28076
696.791	28695
696.955	28389
697.12	28499
697.285	29123
697.45	29089
697.615	28172
697.779	27660
697.944	28939
698.109	29718
698.273	30464
698.438	29858
698.603	28810
698.767	28369
698.932	28763
699.096	30193
699.26	29164
699.425	30428
699.589	31923
699.754	30016
699.918	30164
700.082	31915
700.246	31516
700.411	28855
700.575	30212
700.739	32494
700.903	32660
701.067	32029
701.231	33242
701.395	32870
701.559	29840
701.723	32240
701.887	34094
702.051	34340
702.214	32650
702.378	32689
702.542	33122
702.706	32077
702.869	35065
703.033	36556
703.197	37098
703.36	36946
703.524	36695
703.687	34886
703.851	34239
704.014	36412
704.178	37990
704.341	38062
704.505	38357
704.668	38266
704.831	38526
704.994	37305
705.158	36327
705.321	37680
705.484	38516
705.647	38103
705.81	38715
705.973	38457
706.136	39246
706.299	39234
706.462	39070
706.625	39317
706.788	39566
706.951	40794
707.114	40500
707.277	40813
707.439	41237
707.602	41276
707.765	40377
707.928	40926
708.09	41937
708.253	41588
708.415	40955
708.578	41443
708.74	41093
708.903	41397
709.065	41760
709.228	42384
709.39	42347
709.552	42539
709.715	42706
709.877	43029
710.039	43013
710.201	43530
710.364	43796
710.526	43636
710.688	43660
710.85	43956
711.012	43438
711.174	43540
711.336	44318
711.498	44586
711.66	44405
711.822	44092
711.983	44409
712.145	43423
712.307	44750
712.469	45493
712.63	45117
712.792	44408
712.954	43926
713.115	44138
713.277	45191
713.438	46134
713.6	46041
713.761	45846
713.923	46099
714.084	46154
714.245	45454
714.407	45833
714.568	45143
714.729	43012
714.891	44011
715.052	44263
715.213	46015
715.374	46306
715.535	45468
715.696	45686
715.857	45060
716.018	46119
716.179	44833
716.34	41339
716.501	39636
716.662	36627
716.823	38057
716.984	36331
717.144	35479
717.305	32112
717.466	36911
717.626	31855
717.787	35556
717.948	40092
718.108	35472
718.269	37617
718.429	31381
718.59	26247
718.75	33819
718.911	40988
719.071	33366
719.231	30619
719.392	33623
719.552	37415
719.712	34985
719.872	36103
720.033	30016
720.193	35802
720.353	35018
720.513	35256
720.673	37460
720.833	41716
720.993	43415
721.153	46274
721.313	48119
721.473	46323
721.632	43996
721.792	45492
721.952	47825
722.112	48010
722.271	43694
722.431	46165
722.591	45573
722.75	44068
722.91	47388
723.069	44099
723.229	35906
723.388	32480
723.548	36765
723.707	45049
723.867	41871
724.026	36525
724.185	40734
724.344	37617
724.504	39371
724.663	41866
724.822	43798
724.981	42226
725.14	35227
725.299	33315
725.458	44386
725.617	43247
725.776	41949
725.935	43328
726.094	40740
726.253	40880
726.412	35963
726.571	41473
726.729	47942
726.888	45452
727.047	46158
727.206	41982
727.364	41812
727.523	35190
727.681	31987
727.84	40839
727.998	45494
728.157	45283
728.315	47955
728.474	49572
728.632	43886
728.79	39911
728.949	36327
729.107	36473
729.265	39613
729.423	41733
729.582	47031
729.74	49387
729.898	45388
730.056	44476
730.214	38944
730.372	39403
730.53	46585
730.688	47995
730.846	41742
731.004	41185
731.161	43880
731.319	47328
731.477	46981
731.635	43052
731.792	41721
731.95	47698
732.108	51323
732.265	51522
732.423	50682
732.58	47974
732.738	49109
732.895	51085
733.053	49980
733.21	48254
733.368	48489
733.525	51167
733.682	54291
733.839	54702
733.997	54369
734.154	54234
734.311	51150
734.468	51772
734.625	53247
734.782	51034
734.939	49635
735.096	52182
735.253	52514
735.41	52178
735.567	50880
735.724	52162
735.881	52280
736.038	50431
736.194	50546
736.351	50599
736.508	51296
736.665	52370
736.821	50674
736.978	51736
737.134	53203
737.291	53797
737.447	54157
737.604	53956
737.76	54023
737.917	54840
738.073	53618
738.229	51525
738.386	52626
738.542	52697
738.698	52539
738.854	51183
739.01	51556
739.167	53111
739.323	53731
739.479	53642
739.635	53257
739.791	54613
739.947	53893
740.103	54274
740.259	55189
740.414	54803
740.57	54217
740.726	53995
740.882	52340
741.038	52359
741.193	54754
741.349	54035
741.505	52763
741.66	54499
741.816	55268
741.971	55357
742.127	53732
742.282	53301
742.438	54620
742.593	55936
742.748	56517
742.904	56334
743.059	55773
743.214	56215
743.37	56420
743.525	56131
743.68	56354
743.835	56098
743.99	54910
744.145	55127
744.3	55528
744.455	54344
744.61	54485
744.765	55362
744.92	55964
745.075	56362
745.23	56295
745.384	56374
745.539	56493
745.694	56627
745.849	56539
746.003	55873
746.158	54479
746.313	55582
746.467	56441
746.622	56632
746.776	56744
746.931	56839
747.085	56982
747.239	56482
747.394	56348
747.548	56206
747.702	56389
747.857	56590
748.011	56424
748.165	56179
748.319	56382
748.473	56505
748.627	56520
748.781	56366
748.935	56024
749.089	55061
749.243	55173
749.397	53076
749.551	54637
749.705	55664
749.859	56175
750.013	56364
750.166	56440
750.32	56272
750.474	55886
750.628	55285
750.781	55820
750.935	54253
751.088	53794
751.242	55502
751.395	55868
751.549	56147
751.702	56595
751.856	56476
752.009	56182
752.162	54866
752.316	54710
752.469	54719
752.622	55515
752.775	55864
752.928	55000
753.082	54385
753.235	55100
753.388	55588
753.541	56068
753.694	56047
753.847	55755
754	55560
754.152	55599
754.305	55880
754.458	55295
754.611	54989
754.764	55261
754.916	55972
755.069	55716
755.222	55697
755.374	54813
755.527	54255
755.68	55147
755.832	55013
755.985	55379
756.137	55588
756.289	55665
756.442	55615
756.594	55342
756.746	54337
756.899	54558
757.051	55328
757.203	54727
757.355	54349
757.508	54883
757.66	55121
757.812	54975
757.964	54920
758.116	54506
758.268	53451
758.42	52403
758.572	52250
758.724	53298
758.875	53887
759.027	53800
759.179	49753
759.331	36562
759.482	25365
759.634	21564
759.786	19106
759.937	15894
760.089	13344
760.241	11983
760.392	11438
760.544	11535
760.695	12783
760.846	13730
760.998	16715
761.149	18403
761.3	24122
761.452	26356
761.603	35100
761.754	43022
761.905	40496
762.057	35642
762.208	30347
762.359	26575
762.51	28926
762.661	23072
762.812	27371
762.963	26097
763.114	22979
763.265	30172
763.415	25259
763.566	25600
763.717	32788
763.868	26535
764.018	28419
764.169	36040
764.32	29793
764.47	30655
764.621	39168
764.772	34927
764.922	32184
765.072	40804
765.223	40691
765.373	34652
765.524	40104
765.674	43675
765.824	38714
765.975	38082
766.125	45051
766.275	45245
766.425	40199
766.575	44249
766.726	48732
766.876	47423
767.026	44509
767.176	47932
767.326	50723
767.476	49953
767.625	47444
767.775	49301
767.925	50285
768.075	50583
768.225	48981
768.375	50405
768.524	51806
768.674	51856
768.824	50161
768.973	49392
769.123	50041
769.272	51471
769.422	51411
769.571	50816
769.721	50343
769.87	50280
770.019	51786
770.169	51968
770.318	52268
770.467	52695
770.617	52863
770.766	52611
770.915	51299
771.064	50894
771.213	50995
771.362	49923
771.511	50580
771.66	51509
771.809	51386
771.958	51510
772.107	51180
772.256	50976
772.405	51448
772.554	51088
772.702	50787
772.851	51494
773	51596
773.149	51535
773.297	51585
773.446	51579
773.594	51849
773.743	51741
773.891	51974
774.04	51348
774.188	50308
774.337	50665
774.485	51048
774.633	50097
774.782	48900
774.93	49874
775.078	50772
775.226	51238
775.375	51418
775.523	51417
775.671	51599
775.819	51095
775.967	50961
776.115	51235
776.263	51237
776.411	51391
776.559	51275
776.707	51421
776.854	51283
777.002	50827
777.15	49931
777.298	49725
777.445	49629
777.593	50170
777.741	50530
777.888	49540
778.036	49178
778.183	50073
778.331	50626
778.478	50770
778.626	50539
778.773	49912
778.92	50203
779.068	50545
779.215	50877
779.362	50835
779.51	50473
779.657	49583
779.804	49366
779.951	49328
780.098	49885
780.245	50159
780.392	50153
780.539	50037
780.686	49434
780.833	49440
780.98	48929
781.127	49230
781.274	49513
781.42	49609
781.567	49823
781.714	49868
781.861	49910
782.007	49833
782.154	49890
782.3	49762
782.447	49746
782.594	49558
782.74	49699
782.887	49547
783.033	48455
783.179	47897
783.326	48328
783.472	48057
783.618	48313
783.765	49018
783.911	48959
784.057	49198
784.203	49153
784.349	49090
784.495	48978
784.641	49023
784.787	48645
784.933	48178
785.079	48670
785.225	48484
785.371	48032
785.517	48039
785.663	48301
785.809	48444
785.954	48248
786.1	48148
786.246	47930
786.391	47419
786.537	47152
786.683	47725
786.828	47420
786.974	47062
787.119	47361
787.265	47548
787.41	47093
787.555	45934
787.701	46546
787.846	46716
787.991	46212
788.137	46476
788.282	47163
788.427	46862
788.572	45958
788.717	46262
788.862	45997
789.007	45471
789.152	44875
789.297	44497
789.442	43108
789.587	43767
789.732	45575
789.877	45973
790.022	44374
790.166	44003
790.311	45343
790.456	46315
790.601	46071
790.745	44184
790.89	43622
791.034	44353
791.179	44685
791.323	45232
791.468	44919
791.612	44246
791.757	43895
791.901	44104
792.045	44378
792.19	45258
792.334	44416
792.478	44921
792.622	44871
792.767	43128
792.911	42861
793.055	42941
793.199	43045
793.343	44802
793.487	45244
793.631	44161
793.775	44746
793.919	45145
794.063	44439
794.206	43870
794.35	43045
794.494	42351
794.638	42793
794.781	43478
794.925	43420
795.069	42772
795.212	42735
795.356	42315
795.499	41900
795.643	41163
795.786	39670
795.93	38576
796.073	37575
796.217	36498
796.36	1705
796.503	1685
796.646	1687
796.79	1687
