Data from QEP013861_11-02-35-216.txt Node
Date: Tue May 21 11:02:35 EDT 2019
User: Andrew
Spectrometer: QEP01386
Trigger mode: 4
Integration Time (sec): 3.350000E-1
Scans to average: 1
Electric dark correction enabled: false
Nonlinearity correction enabled: false
Boxcar width: 0
XAxis mode: Wavelengths
Number of Pixels in Spectrum: 1044
>>>>>Begin Spectral Data<<<<<
629.243	1697
629.421	1687
629.599	1681
629.777	1679
629.955	1688
630.132	1691
630.31	1688
630.488	1690
630.666	1684
630.843	1691
631.021	1691
631.199	1687
631.376	1687
631.554	1688
631.731	1692
631.909	1688
632.086	1685
632.264	1687
632.441	1686
632.618	1690
632.796	1687
632.973	1691
633.15	1687
633.327	1689
633.504	1689
633.682	1693
633.859	1687
634.036	1686
634.213	1690
634.39	1691
634.567	1691
634.744	1691
634.921	1686
635.098	1690
635.274	1687
635.451	1692
635.628	1687
635.805	1688
635.982	1688
636.158	1692
636.335	1692
636.511	1691
636.688	1686
636.865	1691
637.041	1690
637.218	1689
637.394	1686
637.571	1692
637.747	1688
637.923	1692
638.1	1693
638.276	1689
638.452	1690
638.628	1690
638.805	1689
638.981	1688
639.157	1688
639.333	1688
639.509	1693
639.685	1688
639.861	1691
640.037	1691
640.213	1693
640.389	1686
640.565	1689
640.74	1688
640.916	1688
641.092	1690
641.268	1687
641.443	1691
641.619	1690
641.795	1689
641.97	1692
642.146	1692
642.321	1691
642.497	1687
642.672	1689
642.848	1687
643.023	1691
643.199	1690
643.374	1688
643.549	1693
643.724	1693
643.9	1691
644.075	1687
644.25	1688
644.425	1690
644.6	1690
644.775	1686
644.95	1689
645.125	1690
645.3	1691
645.475	1690
645.65	1688
645.825	1689
646	1687
646.175	1689
646.349	1694
646.524	1693
646.699	1685
646.874	1689
647.048	1689
647.223	1689
647.397	1694
647.572	1689
647.746	1693
647.921	1689
648.095	1688
648.27	1688
648.444	1689
648.618	1694
648.793	1686
648.967	1688
649.141	1690
649.315	1690
649.49	1691
649.664	1687
649.838	1689
650.012	1691
650.186	1687
650.36	1690
650.534	1692
650.708	1693
650.882	1692
651.056	1690
651.23	1686
651.403	1687
651.577	1688
651.751	1691
651.925	1688
652.098	1691
652.272	1687
652.446	1690
652.619	1691
652.793	1688
652.966	1684
653.14	1691
653.313	1687
653.487	1685
653.66	1692
653.833	1691
654.007	1691
654.18	1692
654.353	1689
654.526	1689
654.7	1689
654.873	1689
655.046	1689
655.219	1690
655.392	1691
655.565	1690
655.738	1691
655.911	1692
656.084	1692
656.257	1687
656.43	1688
656.602	1685
656.775	1690
656.948	1689
657.121	1694
657.293	1692
657.466	1690
657.639	1687
657.811	1689
657.984	1692
658.156	1691
658.329	1686
658.501	1688
658.674	1685
658.846	1691
659.018	1689
659.191	1687
659.363	1685
659.535	1690
659.707	1687
659.88	1688
660.052	1689
660.224	1688
660.396	1691
660.568	1688
660.74	1689
660.912	1687
661.084	1689
661.256	1687
661.428	1687
661.6	1687
661.771	1689
661.943	1685
662.115	1685
662.287	1688
662.458	1688
662.63	1689
662.802	1690
662.973	1690
663.145	1685
663.316	1688
663.488	1684
663.659	1691
663.831	1686
664.002	1691
664.174	1688
664.345	1687
664.516	1689
664.687	1683
664.859	1691
665.03	1690
665.201	1689
665.372	1688
665.543	1687
665.714	1691
665.885	1689
666.056	1689
666.227	1686
666.398	1690
666.569	1690
666.74	1691
666.911	1689
667.082	1688
667.252	1689
667.423	1686
667.594	1691
667.764	1690
667.935	1692
668.106	1690
668.276	1687
668.447	1687
668.617	1687
668.788	1685
668.958	1689
669.129	1690
669.299	1691
669.469	1691
669.64	1692
669.81	1689
669.98	1687
670.15	1691
670.321	1687
670.491	1690
670.661	1685
670.831	1696
671.001	1690
671.171	1690
671.341	1686
671.511	1688
671.681	1693
671.851	1692
672.02	1687
672.19	1687
672.36	1685
672.53	1687
672.699	1687
672.869	1690
673.039	1690
673.208	1686
673.378	1689
673.547	1686
673.717	1691
673.886	1690
674.056	1690
674.225	1687
674.395	1687
674.564	1693
674.733	1691
674.903	1688
675.072	1689
675.241	1692
675.41	1689
675.579	1688
675.748	1686
675.917	1687
676.087	1689
676.256	1689
676.425	1689
676.593	1687
676.762	1688
676.931	1686
677.1	1687
677.269	1685
677.438	1691
677.606	1691
677.775	1691
677.944	1691
678.112	1688
678.281	1687
678.45	1689
678.618	1690
678.787	1690
678.955	1690
679.124	1689
679.292	1691
679.46	1690
679.629	1693
679.797	1692
679.965	1691
680.134	1689
680.302	1686
680.47	1689
680.638	1687
680.806	1691
680.974	1690
681.142	1690
681.31	1688
681.478	1685
681.646	1690
681.814	1687
681.982	1689
682.15	1688
682.318	1691
682.486	1690
682.653	1687
682.821	1688
682.989	1687
683.156	1688
683.324	1691
683.492	1691
683.659	1687
683.827	1690
683.994	1689
684.162	1689
684.329	1691
684.496	1687
684.664	1691
684.831	1686
684.998	1686
685.166	1686
685.333	1693
685.5	1694
685.667	1692
685.834	1691
686.001	1688
686.168	1689
686.335	1689
686.502	1690
686.669	1687
686.836	1691
687.003	1690
687.17	1688
687.337	1688
687.504	1686
687.67	1688
687.837	1689
688.004	1694
688.17	1686
688.337	1688
688.504	1685
688.67	1693
688.837	1685
689.003	1687
689.17	1686
689.336	1690
689.502	1684
689.669	1691
689.835	1689
690.001	1687
690.168	1689
690.334	1689
690.5	1691
690.666	1687
690.832	1687
690.998	1692
691.164	1689
691.33	1689
691.496	1691
691.662	1692
691.828	1687
691.994	1685
692.16	1690
692.326	1688
692.492	1689
692.657	1687
692.823	1685
692.989	1683
693.155	1691
693.32	1692
693.486	1689
693.651	1687
693.817	1694
693.982	1688
694.148	1689
694.313	1689
694.479	1686
694.644	1688
694.809	1689
694.975	1687
695.14	1690
695.305	1687
695.47	1685
695.635	1687
695.801	1690
695.966	1687
696.131	1691
696.296	1695
696.461	1687
696.626	1692
696.791	1688
696.955	1689
697.12	1688
697.285	1695
697.45	1687
697.615	1688
697.779	1690
697.944	1690
698.109	1687
698.273	1688
698.438	1688
698.603	1689
698.767	1690
698.932	1688
699.096	1692
699.26	1688
699.425	1691
699.589	1693
699.754	1688
699.918	1689
700.082	1691
700.246	1692
700.411	1693
700.575	1688
700.739	1691
700.903	1689
701.067	1688
701.231	1689
701.395	1689
701.559	1683
701.723	1691
701.887	1690
702.051	1689
702.214	1690
702.378	1691
702.542	1686
702.706	1686
702.869	1689
703.033	1689
703.197	1691
703.36	1686
703.524	1684
703.687	1687
703.851	1690
704.014	1690
704.178	1690
704.341	1690
704.505	1691
704.668	1687
704.831	1689
704.994	1688
705.158	1689
705.321	1687
705.484	1687
705.647	1686
705.81	1690
705.973	1687
706.136	1688
706.299	1689
706.462	1686
706.625	1690
706.788	1688
706.951	1688
707.114	1685
707.277	1690
707.439	1690
707.602	1687
707.765	1685
707.928	1688
708.09	1692
708.253	1687
708.415	1689
708.578	1691
708.74	1685
708.903	1691
709.065	1689
709.228	1689
709.39	1691
709.552	1693
709.715	1690
709.877	1690
710.039	1689
710.201	1692
710.364	1686
710.526	1690
710.688	1690
710.85	1691
711.012	1686
711.174	1688
711.336	1690
711.498	1686
711.66	1684
711.822	1689
711.983	1686
712.145	1692
712.307	1689
712.469	1689
712.63	1688
712.792	1693
712.954	1686
713.115	1689
713.277	1690
713.438	1688
713.6	1686
713.761	1686
713.923	1686
714.084	1691
714.245	1690
714.407	1683
714.568	1691
714.729	1687
714.891	1682
715.052	1690
715.213	1693
715.374	1688
715.535	1691
715.696	1688
715.857	1688
716.018	1686
716.179	1684
716.34	1688
716.501	1692
716.662	1689
716.823	1694
716.984	1692
717.144	1691
717.305	1686
717.466	1690
717.626	1687
717.787	1689
717.948	1691
718.108	1692
718.269	1686
718.429	1688
718.59	1688
718.75	1688
718.911	1690
719.071	1691
719.231	1692
719.392	1687
719.552	1689
719.712	1686
719.872	1691
720.033	1687
720.193	1693
720.353	1687
720.513	1688
720.673	1689
720.833	1692
720.993	1689
721.153	1688
721.313	1692
721.473	1688
721.632	1690
721.792	1689
721.952	1684
722.112	1691
722.271	1689
722.431	1693
722.591	1688
722.75	1691
722.91	1689
723.069	1688
723.229	1690
723.388	1686
723.548	1690
723.707	1691
723.867	1688
724.026	1688
724.185	1688
724.344	1690
724.504	1686
724.663	1689
724.822	1687
724.981	1690
725.14	1687
725.299	1683
725.458	1687
725.617	1690
725.776	1687
725.935	1690
726.094	1689
726.253	1687
726.412	1689
726.571	1692
726.729	1690
726.888	1688
727.047	1689
727.206	1692
727.364	1691
727.523	1690
727.681	1692
727.84	1689
727.998	1689
728.157	1688
728.315	1690
728.474	1686
728.632	1685
728.79	1693
728.949	1686
729.107	1687
729.265	1685
729.423	1691
729.582	1689
729.74	1691
729.898	1691
730.056	1688
730.214	1691
730.372	1689
730.53	1690
730.688	1691
730.846	1688
731.004	1686
731.161	1685
731.319	1687
731.477	1691
731.635	1692
731.792	1689
731.95	1689
732.108	1694
732.265	1689
732.423	1690
732.58	1687
732.738	1685
732.895	1687
733.053	1697
733.21	1687
733.368	1695
733.525	1690
733.682	1689
733.839	1685
733.997	1690
734.154	1688
734.311	1689
734.468	1689
734.625	1691
734.782	1693
734.939	1689
735.096	1687
735.253	1690
735.41	1689
735.567	1691
735.724	1687
735.881	1689
736.038	1687
736.194	1690
736.351	1693
736.508	1691
736.665	1692
736.821	1690
736.978	1689
737.134	1687
737.291	1686
737.447	1692
737.604	1688
737.76	1688
737.917	1688
738.073	1691
738.229	1690
738.386	1690
738.542	1691
738.698	1690
738.854	1691
739.01	1688
739.167	1691
739.323	1688
739.479	1686
739.635	1689
739.791	1688
739.947	1688
740.103	1687
740.259	1685
740.414	1687
740.57	1689
740.726	1689
740.882	1688
741.038	1686
741.193	1685
741.349	1690
741.505	1693
741.66	1688
741.816	1687
741.971	1690
742.127	1689
742.282	1688
742.438	1688
742.593	1688
742.748	1687
742.904	1689
743.059	1692
743.214	1684
743.37	1688
743.525	1691
743.68	1694
743.835	1686
743.99	1688
744.145	1693
744.3	1690
744.455	1691
744.61	1690
744.765	1689
744.92	1691
745.075	1691
745.23	1684
745.384	1692
745.539	1689
745.694	1689
745.849	1691
746.003	1693
746.158	1692
746.313	1691
746.467	1692
746.622	1687
746.776	1690
746.931	1689
747.085	1685
747.239	1686
747.394	1689
747.548	1691
747.702	1690
747.857	1691
748.011	1687
748.165	1691
748.319	1693
748.473	1688
748.627	1694
748.781	1690
748.935	1688
749.089	1688
749.243	1690
749.397	1688
749.551	1689
749.705	1687
749.859	1690
750.013	1689
750.166	1689
750.32	1690
750.474	1689
750.628	1688
750.781	1692
750.935	1693
751.088	1690
751.242	1691
751.395	1686
751.549	1690
751.702	1691
751.856	1693
752.009	1690
752.162	1687
752.316	1691
752.469	1691
752.622	1686
752.775	1688
752.928	1688
753.082	1687
753.235	1686
753.388	1685
753.541	1688
753.694	1687
753.847	1686
754	1688
754.152	1688
754.305	1689
754.458	1689
754.611	1687
754.764	1689
754.916	1688
755.069	1687
755.222	1695
755.374	1689
755.527	1689
755.68	1687
755.832	1693
755.985	1693
756.137	1686
756.289	1687
756.442	1692
756.594	1693
756.746	1693
756.899	1688
757.051	1685
757.203	1688
757.355	1686
757.508	1688
757.66	1692
757.812	1692
757.964	1688
758.116	1690
758.268	1692
758.42	1691
758.572	1686
758.724	1686
758.875	1689
759.027	1690
759.179	1692
759.331	1686
759.482	1691
759.634	1692
759.786	1688
759.937	1688
760.089	1689
760.241	1686
760.392	1691
760.544	1690
760.695	1690
760.846	1689
760.998	1688
761.149	1693
761.3	1685
761.452	1688
761.603	1688
761.754	1689
761.905	1688
762.057	1688
762.208	1686
762.359	1684
762.51	1685
762.661	1690
762.812	1684
762.963	1692
763.114	1688
763.265	1687
763.415	1688
763.566	1691
763.717	1683
763.868	1683
764.018	1689
764.169	1686
764.32	1689
764.47	1687
764.621	1689
764.772	1688
764.922	1689
765.072	1690
765.223	1689
765.373	1690
765.524	1692
765.674	1688
765.824	1687
765.975	1690
766.125	1688
766.275	1689
766.425	1688
766.575	1694
766.726	1689
766.876	1688
767.026	1687
767.176	1691
767.326	1694
767.476	1693
767.625	1694
767.775	1691
767.925	1689
768.075	1691
768.225	1689
768.375	1689
768.524	1690
768.674	1689
768.824	1691
768.973	1690
769.123	1687
769.272	1685
769.422	1687
769.571	1687
769.721	1688
769.87	1693
770.019	1687
770.169	1689
770.318	1691
770.467	1687
770.617	1689
770.766	1687
770.915	1687
771.064	1689
771.213	1690
771.362	1688
771.511	1689
771.66	1694
771.809	1686
771.958	1687
772.107	1692
772.256	1689
772.405	1689
772.554	1692
772.702	1690
772.851	1690
773	1692
773.149	1687
773.297	1689
773.446	1692
773.594	1686
773.743	1687
773.891	1686
774.04	1686
774.188	1684
774.337	1689
774.485	1687
774.633	1685
774.782	1684
774.93	1685
775.078	1690
775.226	1689
775.375	1687
775.523	1691
775.671	1687
775.819	1686
775.967	1690
776.115	1689
776.263	1690
776.411	1692
776.559	1689
776.707	1684
776.854	1691
777.002	1686
777.15	1689
777.298	1690
777.445	1689
777.593	1689
777.741	1689
777.888	1687
778.036	1692
778.183	1689
778.331	1689
778.478	1688
778.626	1691
778.773	1685
778.92	1686
779.068	1688
779.215	1688
779.362	1686
779.51	1684
779.657	1686
779.804	1688
779.951	1690
780.098	1688
780.245	1691
780.392	1688
780.539	1693
780.686	1688
780.833	1691
780.98	1688
781.127	1688
781.274	1688
781.42	1687
781.567	1688
781.714	1687
781.861	1692
782.007	1687
782.154	1686
782.3	1690
782.447	1686
782.594	1690
782.74	1686
782.887	1690
783.033	1686
783.179	1688
783.326	1690
783.472	1687
783.618	1688
783.765	1689
783.911	1690
784.057	1688
784.203	1687
784.349	1691
784.495	1689
784.641	1688
784.787	1686
784.933	1690
785.079	1693
785.225	1688
785.371	1689
785.517	1692
785.663	1692
785.809	1690
785.954	1690
786.1	1689
786.246	1690
786.391	1688
786.537	1688
786.683	1689
786.828	1686
786.974	1686
787.119	1690
787.265	1690
787.41	1689
787.555	1688
787.701	1690
787.846	1691
787.991	1691
788.137	1690
788.282	1688
788.427	1689
788.572	1692
788.717	1688
788.862	1691
789.007	1690
789.152	1685
789.297	1689
789.442	1691
789.587	1687
789.732	1686
789.877	1689
790.022	1688
790.166	1691
790.311	1689
790.456	1692
790.601	1689
790.745	1686
790.89	1686
791.034	1686
791.179	1687
791.323	1691
791.468	1690
791.612	1690
791.757	1687
791.901	1688
792.045	1684
792.19	1689
792.334	1689
792.478	1691
792.622	1684
792.767	1688
792.911	1684
793.055	1687
793.199	1686
793.343	1690
793.487	1688
793.631	1689
793.775	1688
793.919	1687
794.063	1694
794.206	1685
794.35	1689
794.494	1689
794.638	1691
794.781	1691
794.925	1693
795.069	1689
795.212	1688
795.356	1689
795.499	1691
795.643	1690
795.786	1685
795.93	1692
796.073	1690
796.217	1689
796.36	1684
796.503	1683
796.646	1682
796.79	1685
