Data from QEP013861_14-44-46-728.txt Node
Date: Tue Jul 09 14:44:46 EDT 2019
User: xiyang
Spectrometer: QEP01386
Trigger mode: 4
Integration Time (sec): 2.000000E-1
Scans to average: 1
Electric dark correction enabled: false
Nonlinearity correction enabled: false
Boxcar width: 0
XAxis mode: Wavelengths
Number of Pixels in Spectrum: 1044
>>>>>Begin Spectral Data<<<<<
629.243	1697
629.421	1691
629.599	1686
629.777	1681
629.955	1687
630.132	1687
630.31	1685
630.488	1689
630.666	1686
630.843	1688
631.021	1689
631.199	1687
631.376	1693
631.554	1689
631.731	1684
631.909	1690
632.086	1684
632.264	1688
632.441	1685
632.618	1689
632.796	1689
632.973	1690
633.15	1691
633.327	1687
633.504	1688
633.682	1689
633.859	1688
634.036	1687
634.213	1686
634.39	1690
634.567	1689
634.744	1687
634.921	1688
635.098	1687
635.274	1690
635.451	1690
635.628	1686
635.805	1687
635.982	1690
636.158	1690
636.335	1687
636.511	1688
636.688	1687
636.865	1690
637.041	1689
637.218	1687
637.394	1691
637.571	1690
637.747	1689
637.923	1690
638.1	1689
638.276	1686
638.452	1685
638.628	1686
638.805	1689
638.981	1687
639.157	1688
639.333	1689
639.509	1690
639.685	1685
639.861	1690
640.037	1689
640.213	1686
640.389	1689
640.565	1686
640.74	1690
640.916	1689
641.092	1687
641.268	1691
641.443	1687
641.619	1690
641.795	1689
641.97	1687
642.146	1691
642.321	1688
642.497	1691
642.672	1691
642.848	1689
643.023	1690
643.199	1693
643.374	1689
643.549	1687
643.724	1690
643.9	1691
644.075	1690
644.25	1686
644.425	1682
644.6	1686
644.775	1689
644.95	1691
645.125	1687
645.3	1690
645.475	1687
645.65	1690
645.825	1688
646	1689
646.175	1687
646.349	1690
646.524	1688
646.699	1687
646.874	1686
647.048	1687
647.223	1689
647.397	1689
647.572	1686
647.746	1691
647.921	1691
648.095	1688
648.27	1686
648.444	1687
648.618	1688
648.793	1687
648.967	1687
649.141	1690
649.315	1687
649.49	1688
649.664	1685
649.838	1687
650.012	1689
650.186	1689
650.36	1684
650.534	1686
650.708	1686
650.882	1686
651.056	1689
651.23	1691
651.403	1684
651.577	1685
651.751	1687
651.925	1687
652.098	1687
652.272	1686
652.446	1688
652.619	1686
652.793	1692
652.966	1688
653.14	1690
653.313	1688
653.487	1687
653.66	1691
653.833	1690
654.007	1686
654.18	1692
654.353	1689
654.526	1686
654.7	1687
654.873	1688
655.046	1682
655.219	1686
655.392	1688
655.565	1688
655.738	1686
655.911	1687
656.084	1686
656.257	1692
656.43	1684
656.602	1687
656.775	1687
656.948	1690
657.121	1690
657.293	1688
657.466	1690
657.639	1686
657.811	1688
657.984	1687
658.156	1689
658.329	1691
658.501	1690
658.674	1688
658.846	1689
659.018	1688
659.191	1686
659.363	1689
659.535	1692
659.707	1689
659.88	1689
660.052	1689
660.224	1689
660.396	1691
660.568	1686
660.74	1690
660.912	1691
661.084	1691
661.256	1687
661.428	1685
661.6	1690
661.771	1687
661.943	1689
662.115	1689
662.287	1691
662.458	1688
662.63	1688
662.802	1688
662.973	1691
663.145	1689
663.316	1686
663.488	1687
663.659	1688
663.831	1690
664.002	1692
664.174	1688
664.345	1688
664.516	1688
664.687	1684
664.859	1685
665.03	1690
665.201	1690
665.372	1689
665.543	1688
665.714	1686
665.885	1688
666.056	1690
666.227	1687
666.398	1689
666.569	1687
666.74	1687
666.911	1686
667.082	1689
667.252	1691
667.423	1688
667.594	1693
667.764	1689
667.935	1686
668.106	1688
668.276	1688
668.447	1688
668.617	1692
668.788	1692
668.958	1689
669.129	1689
669.299	1685
669.469	1692
669.64	1687
669.81	1690
669.98	1687
670.15	1691
670.321	1690
670.491	1689
670.661	1689
670.831	1690
671.001	1690
671.171	1691
671.341	1685
671.511	1688
671.681	1688
671.851	1687
672.02	1689
672.19	1690
672.36	1693
672.53	1687
672.699	1691
672.869	1690
673.039	1688
673.208	1690
673.378	1691
673.547	1688
673.717	1688
673.886	1689
674.056	1693
674.225	1685
674.395	1686
674.564	1690
674.733	1689
674.903	1690
675.072	1686
675.241	1688
675.41	1691
675.579	1685
675.748	1691
675.917	1686
676.087	1686
676.256	1687
676.425	1687
676.593	1686
676.762	1687
676.931	1687
677.1	1690
677.269	1690
677.438	1690
677.606	1692
677.775	1688
677.944	1685
678.112	1686
678.281	1689
678.45	1692
678.618	1687
678.787	1687
678.955	1693
679.124	1683
679.292	1687
679.46	1686
679.629	1690
679.797	1690
679.965	1686
680.134	1687
680.302	1688
680.47	1691
680.638	1688
680.806	1687
680.974	1691
681.142	1685
681.31	1688
681.478	1688
681.646	1693
681.814	1689
681.982	1684
682.15	1688
682.318	1684
682.486	1684
682.653	1687
682.821	1690
682.989	1688
683.156	1689
683.324	1688
683.492	1684
683.659	1686
683.827	1688
683.994	1689
684.162	1688
684.329	1690
684.496	1689
684.664	1686
684.831	1686
684.998	1688
685.166	1688
685.333	1686
685.5	1685
685.667	1685
685.834	1685
686.001	1689
686.168	1691
686.335	1685
686.502	1687
686.669	1684
686.836	1689
687.003	1689
687.17	1684
687.337	1691
687.504	1686
687.67	1686
687.837	1691
688.004	1687
688.17	1689
688.337	1691
688.504	1689
688.67	1690
688.837	1688
689.003	1688
689.17	1685
689.336	1688
689.502	1687
689.669	1690
689.835	1684
690.001	1687
690.168	1693
690.334	1693
690.5	1687
690.666	1689
690.832	1691
690.998	1689
691.164	1686
691.33	1689
691.496	1687
691.662	1685
691.828	1688
691.994	1688
692.16	1691
692.326	1688
692.492	1685
692.657	1688
692.823	1691
692.989	1688
693.155	1688
693.32	1685
693.486	1688
693.651	1687
693.817	1689
693.982	1690
694.148	1688
694.313	1689
694.479	1688
694.644	1690
694.809	1689
694.975	1685
695.14	1690
695.305	1688
695.47	1693
695.635	1688
695.801	1688
695.966	1689
696.131	1686
696.296	1689
696.461	1690
696.626	1689
696.791	1690
696.955	1690
697.12	1686
697.285	1687
697.45	1689
697.615	1691
697.779	1689
697.944	1689
698.109	1691
698.273	1687
698.438	1689
698.603	1687
698.767	1688
698.932	1689
699.096	1689
699.26	1689
699.425	1690
699.589	1689
699.754	1686
699.918	1687
700.082	1686
700.246	1688
700.411	1688
700.575	1691
700.739	1689
700.903	1686
701.067	1689
701.231	1691
701.395	1686
701.559	1689
701.723	1688
701.887	1688
702.051	1689
702.214	1691
702.378	1700
702.542	1688
702.706	1694
702.869	1687
703.033	1689
703.197	1690
703.36	1688
703.524	1688
703.687	1689
703.851	1688
704.014	1690
704.178	1693
704.341	1687
704.505	1687
704.668	1689
704.831	1684
704.994	1690
705.158	1687
705.321	1687
705.484	1687
705.647	1691
705.81	1687
705.973	1685
706.136	1691
706.299	1690
706.462	1691
706.625	1687
706.788	1688
706.951	1689
707.114	1690
707.277	1694
707.439	1684
707.602	1690
707.765	1686
707.928	1686
708.09	1691
708.253	1687
708.415	1687
708.578	1691
708.74	1691
708.903	1686
709.065	1692
709.228	1691
709.39	1690
709.552	1685
709.715	1685
709.877	1691
710.039	1689
710.201	1687
710.364	1692
710.526	1688
710.688	1692
710.85	1689
711.012	1688
711.174	1688
711.336	1689
711.498	1686
711.66	1689
711.822	1688
711.983	1686
712.145	1689
712.307	1691
712.469	1688
712.63	1690
712.792	1690
712.954	1684
713.115	1689
713.277	1686
713.438	1688
713.6	1686
713.761	1683
713.923	1690
714.084	1689
714.245	1688
714.407	1689
714.568	1688
714.729	1682
714.891	1692
715.052	1688
715.213	1693
715.374	1691
715.535	1688
715.696	1690
715.857	1690
716.018	1693
716.179	1688
716.34	1688
716.501	1686
716.662	1686
716.823	1690
716.984	1687
717.144	1687
717.305	1689
717.466	1688
717.626	1687
717.787	1692
717.948	1687
718.108	1686
718.269	1691
718.429	1689
718.59	1691
718.75	1687
718.911	1691
719.071	1692
719.231	1689
719.392	1688
719.552	1687
719.712	1690
719.872	1689
720.033	1686
720.193	1691
720.353	1688
720.513	1689
720.673	1686
720.833	1688
720.993	1690
721.153	1689
721.313	1692
721.473	1690
721.632	1690
721.792	1688
721.952	1694
722.112	1687
722.271	1688
722.431	1693
722.591	1684
722.75	1692
722.91	1689
723.069	1690
723.229	1687
723.388	1690
723.548	1688
723.707	1690
723.867	1686
724.026	1689
724.185	1686
724.344	1691
724.504	1691
724.663	1686
724.822	1688
724.981	1690
725.14	1688
725.299	1685
725.458	1683
725.617	1690
725.776	1692
725.935	1685
726.094	1691
726.253	1692
726.412	1691
726.571	1686
726.729	1684
726.888	1688
727.047	1689
727.206	1690
727.364	1691
727.523	1688
727.681	1687
727.84	1688
727.998	1688
728.157	1688
728.315	1690
728.474	1684
728.632	1689
728.79	1690
728.949	1691
729.107	1690
729.265	1686
729.423	1687
729.582	1691
729.74	1687
729.898	1690
730.056	1691
730.214	1690
730.372	1689
730.53	1687
730.688	1689
730.846	1684
731.004	1687
731.161	1690
731.319	1687
731.477	1687
731.635	1689
731.792	1687
731.95	1685
732.108	1690
732.265	1686
732.423	1689
732.58	1691
732.738	1683
732.895	1685
733.053	1685
733.21	1689
733.368	1688
733.525	1688
733.682	1690
733.839	1689
733.997	1690
734.154	1692
734.311	1691
734.468	1691
734.625	1689
734.782	1688
734.939	1685
735.096	1688
735.253	1692
735.41	1689
735.567	1686
735.724	1687
735.881	1685
736.038	1688
736.194	1687
736.351	1690
736.508	1690
736.665	1685
736.821	1692
736.978	1688
737.134	1690
737.291	1688
737.447	1691
737.604	1690
737.76	1690
737.917	1689
738.073	1689
738.229	1686
738.386	1685
738.542	1687
738.698	1689
738.854	1687
739.01	1686
739.167	1688
739.323	1690
739.479	1693
739.635	1690
739.791	1693
739.947	1690
740.103	1689
740.259	1686
740.414	1687
740.57	1685
740.726	1687
740.882	1686
741.038	1688
741.193	1692
741.349	1691
741.505	1686
741.66	1689
741.816	1688
741.971	1685
742.127	1690
742.282	1689
742.438	1692
742.593	1688
742.748	1686
742.904	1686
743.059	1690
743.214	1685
743.37	1689
743.525	1687
743.68	1690
743.835	1687
743.99	1688
744.145	1689
744.3	1688
744.455	1689
744.61	1688
744.765	1685
744.92	1688
745.075	1688
745.23	1692
745.384	1688
745.539	1688
745.694	1689
745.849	1692
746.003	1687
746.158	1688
746.313	1687
746.467	1686
746.622	1690
746.776	1686
746.931	1690
747.085	1691
747.239	1687
747.394	1688
747.548	1688
747.702	1688
747.857	1689
748.011	1685
748.165	1691
748.319	1692
748.473	1684
748.627	1692
748.781	1689
748.935	1688
749.089	1690
749.243	1688
749.397	1690
749.551	1691
749.705	1685
749.859	1685
750.013	1687
750.166	1688
750.32	1686
750.474	1688
750.628	1688
750.781	1688
750.935	1694
751.088	1688
751.242	1690
751.395	1686
751.549	1687
751.702	1687
751.856	1685
752.009	1690
752.162	1688
752.316	1688
752.469	1691
752.622	1689
752.775	1689
752.928	1689
753.082	1687
753.235	1689
753.388	1688
753.541	1690
753.694	1687
753.847	1689
754	1688
754.152	1689
754.305	1688
754.458	1691
754.611	1692
754.764	1687
754.916	1689
755.069	1692
755.222	1691
755.374	1685
755.527	1685
755.68	1689
755.832	1690
755.985	1691
756.137	1682
756.289	1689
756.442	1686
756.594	1687
756.746	1691
756.899	1692
757.051	1688
757.203	1685
757.355	1688
757.508	1683
757.66	1684
757.812	1689
757.964	1688
758.116	1690
758.268	1685
758.42	1687
758.572	1689
758.724	1688
758.875	1687
759.027	1687
759.179	1686
759.331	1691
759.482	1691
759.634	1685
759.786	1686
759.937	1686
760.089	1686
760.241	1688
760.392	1690
760.544	1690
760.695	1683
760.846	1690
760.998	1691
761.149	1691
761.3	1688
761.452	1687
761.603	1689
761.754	1686
761.905	1690
762.057	1685
762.208	1689
762.359	1686
762.51	1689
762.661	1689
762.812	1689
762.963	1685
763.114	1687
763.265	1692
763.415	1689
763.566	1689
763.717	1692
763.868	1688
764.018	1689
764.169	1689
764.32	1689
764.47	1687
764.621	1690
764.772	1685
764.922	1693
765.072	1685
765.223	1688
765.373	1690
765.524	1692
765.674	1689
765.824	1688
765.975	1687
766.125	1688
766.275	1687
766.425	1686
766.575	1687
766.726	1692
766.876	1691
767.026	1689
767.176	1689
767.326	1693
767.476	1693
767.625	1694
767.775	1684
767.925	1690
768.075	1685
768.225	1689
768.375	1684
768.524	1690
768.674	1686
768.824	1685
768.973	1686
769.123	1688
769.272	1687
769.422	1691
769.571	1691
769.721	1688
769.87	1689
770.019	1691
770.169	1691
770.318	1686
770.467	1684
770.617	1688
770.766	1688
770.915	1688
771.064	1685
771.213	1689
771.362	1690
771.511	1688
771.66	1688
771.809	1688
771.958	1688
772.107	1691
772.256	1691
772.405	1688
772.554	1685
772.702	1686
772.851	1689
773	1687
773.149	1688
773.297	1687
773.446	1690
773.594	1689
773.743	1693
773.891	1688
774.04	1690
774.188	1686
774.337	1685
774.485	1686
774.633	1685
774.782	1685
774.93	1687
775.078	1687
775.226	1687
775.375	1691
775.523	1688
775.671	1689
775.819	1689
775.967	1691
776.115	1686
776.263	1689
776.411	1687
776.559	1689
776.707	1687
776.854	1688
777.002	1685
777.15	1689
777.298	1689
777.445	1687
777.593	1686
777.741	1687
777.888	1691
778.036	1690
778.183	1689
778.331	1688
778.478	1687
778.626	1689
778.773	1688
778.92	1691
779.068	1690
779.215	1690
779.362	1686
779.51	1690
779.657	1690
779.804	1688
779.951	1688
780.098	1685
780.245	1691
780.392	1688
780.539	1686
780.686	1690
780.833	1688
780.98	1686
781.127	1689
781.274	1692
781.42	1688
781.567	1688
781.714	1686
781.861	1688
782.007	1686
782.154	1687
782.3	1691
782.447	1687
782.594	1691
782.74	1684
782.887	1687
783.033	1688
783.179	1687
783.326	1684
783.472	1687
783.618	1689
783.765	1687
783.911	1686
784.057	1690
784.203	1687
784.349	1688
784.495	1690
784.641	1686
784.787	1690
784.933	1689
785.079	1687
785.225	1693
785.371	1687
785.517	1690
785.663	1687
785.809	1687
785.954	1688
786.1	1688
786.246	1686
786.391	1689
786.537	1688
786.683	1686
786.828	1691
786.974	1692
787.119	1692
787.265	1695
787.41	1692
787.555	1689
787.701	1692
787.846	1691
787.991	1689
788.137	1689
788.282	1689
788.427	1687
788.572	1689
788.717	1685
788.862	1686
789.007	1689
789.152	1686
789.297	1687
789.442	1687
789.587	1687
789.732	1690
789.877	1689
790.022	1689
790.166	1690
790.311	1690
790.456	1693
790.601	1688
790.745	1686
790.89	1689
791.034	1688
791.179	1686
791.323	1691
791.468	1685
791.612	1688
791.757	1687
791.901	1689
792.045	1693
792.19	1687
792.334	1687
792.478	1686
792.622	1687
792.767	1688
792.911	1684
793.055	1691
793.199	1686
793.343	1691
793.487	1688
793.631	1688
793.775	1689
793.919	1688
794.063	1688
794.206	1687
794.35	1689
794.494	1685
794.638	1689
794.781	1685
794.925	1685
795.069	1689
795.212	1683
795.356	1691
795.499	1690
795.643	1686
795.786	1689
795.93	1685
796.073	1689
796.217	1689
796.36	1682
796.503	1686
796.646	1686
796.79	1685
