Data from QEP013861_14-44-46-328.txt Node
Date: Tue Jul 09 14:44:46 EDT 2019
User: xiyang
Spectrometer: QEP01386
Trigger mode: 4
Integration Time (sec): 2.000000E-1
Scans to average: 1
Electric dark correction enabled: false
Nonlinearity correction enabled: false
Boxcar width: 0
XAxis mode: Wavelengths
Number of Pixels in Spectrum: 1044
>>>>>Begin Spectral Data<<<<<
629.243	1697
629.421	1687
629.599	1683
629.777	1685
629.955	1686
630.132	1690
630.31	1685
630.488	1687
630.666	1691
630.843	1687
631.021	1689
631.199	1688
631.376	1683
631.554	1686
631.731	1689
631.909	1690
632.086	1686
632.264	1684
632.441	1686
632.618	1691
632.796	1690
632.973	1686
633.15	1689
633.327	1689
633.504	1686
633.682	1688
633.859	1691
634.036	1688
634.213	1686
634.39	1686
634.567	1689
634.744	1687
634.921	1686
635.098	1689
635.274	1689
635.451	1686
635.628	1682
635.805	1689
635.982	1690
636.158	1691
636.335	1689
636.511	1692
636.688	1689
636.865	1694
637.041	1689
637.218	1687
637.394	1690
637.571	1691
637.747	1689
637.923	1688
638.1	1686
638.276	1691
638.452	1691
638.628	1689
638.805	1687
638.981	1684
639.157	1688
639.333	1688
639.509	1687
639.685	1691
639.861	1690
640.037	1688
640.213	1690
640.389	1688
640.565	1687
640.74	1691
640.916	1687
641.092	1689
641.268	1691
641.443	1688
641.619	1688
641.795	1689
641.97	1691
642.146	1686
642.321	1692
642.497	1686
642.672	1692
642.848	1684
643.023	1686
643.199	1689
643.374	1691
643.549	1690
643.724	1689
643.9	1688
644.075	1691
644.25	1689
644.425	1692
644.6	1693
644.775	1690
644.95	1686
645.125	1688
645.3	1691
645.475	1690
645.65	1688
645.825	1687
646	1689
646.175	1687
646.349	1691
646.524	1685
646.699	1692
646.874	1687
647.048	1688
647.223	1683
647.397	1689
647.572	1690
647.746	1688
647.921	1688
648.095	1687
648.27	1689
648.444	1691
648.618	1689
648.793	1689
648.967	1690
649.141	1692
649.315	1694
649.49	1687
649.664	1689
649.838	1689
650.012	1693
650.186	1688
650.36	1690
650.534	1686
650.708	1686
650.882	1691
651.056	1690
651.23	1691
651.403	1687
651.577	1689
651.751	1688
651.925	1690
652.098	1688
652.272	1690
652.446	1694
652.619	1688
652.793	1689
652.966	1689
653.14	1685
653.313	1688
653.487	1693
653.66	1688
653.833	1688
654.007	1688
654.18	1690
654.353	1688
654.526	1688
654.7	1686
654.873	1691
655.046	1689
655.219	1688
655.392	1690
655.565	1691
655.738	1689
655.911	1688
656.084	1688
656.257	1686
656.43	1689
656.602	1690
656.775	1685
656.948	1686
657.121	1692
657.293	1692
657.466	1682
657.639	1690
657.811	1684
657.984	1685
658.156	1688
658.329	1692
658.501	1687
658.674	1690
658.846	1688
659.018	1689
659.191	1689
659.363	1688
659.535	1688
659.707	1686
659.88	1691
660.052	1686
660.224	1692
660.396	1693
660.568	1686
660.74	1686
660.912	1684
661.084	1689
661.256	1690
661.428	1692
661.6	1689
661.771	1691
661.943	1691
662.115	1687
662.287	1683
662.458	1689
662.63	1688
662.802	1688
662.973	1690
663.145	1687
663.316	1689
663.488	1686
663.659	1687
663.831	1687
664.002	1684
664.174	1685
664.345	1689
664.516	1690
664.687	1683
664.859	1690
665.03	1690
665.201	1694
665.372	1691
665.543	1688
665.714	1685
665.885	1690
666.056	1692
666.227	1686
666.398	1688
666.569	1688
666.74	1688
666.911	1687
667.082	1688
667.252	1687
667.423	1691
667.594	1686
667.764	1694
667.935	1687
668.106	1693
668.276	1685
668.447	1688
668.617	1689
668.788	1684
668.958	1690
669.129	1683
669.299	1688
669.469	1692
669.64	1689
669.81	1691
669.98	1688
670.15	1695
670.321	1687
670.491	1689
670.661	1689
670.831	1689
671.001	1692
671.171	1691
671.341	1687
671.511	1691
671.681	1691
671.851	1687
672.02	1687
672.19	1691
672.36	1688
672.53	1690
672.699	1691
672.869	1687
673.039	1686
673.208	1692
673.378	1690
673.547	1688
673.717	1691
673.886	1687
674.056	1690
674.225	1688
674.395	1693
674.564	1688
674.733	1692
674.903	1691
675.072	1689
675.241	1690
675.41	1688
675.579	1688
675.748	1689
675.917	1689
676.087	1685
676.256	1684
676.425	1690
676.593	1689
676.762	1686
676.931	1690
677.1	1689
677.269	1689
677.438	1687
677.606	1686
677.775	1688
677.944	1689
678.112	1683
678.281	1691
678.45	1688
678.618	1691
678.787	1687
678.955	1691
679.124	1688
679.292	1693
679.46	1693
679.629	1689
679.797	1693
679.965	1684
680.134	1689
680.302	1687
680.47	1691
680.638	1684
680.806	1689
680.974	1688
681.142	1685
681.31	1690
681.478	1692
681.646	1687
681.814	1690
681.982	1686
682.15	1686
682.318	1688
682.486	1688
682.653	1686
682.821	1689
682.989	1694
683.156	1690
683.324	1688
683.492	1689
683.659	1687
683.827	1691
683.994	1688
684.162	1689
684.329	1688
684.496	1689
684.664	1688
684.831	1687
684.998	1687
685.166	1687
685.333	1686
685.5	1688
685.667	1688
685.834	1688
686.001	1691
686.168	1689
686.335	1687
686.502	1686
686.669	1688
686.836	1685
687.003	1690
687.17	1683
687.337	1689
687.504	1685
687.67	1687
687.837	1687
688.004	1691
688.17	1687
688.337	1690
688.504	1692
688.67	1685
688.837	1690
689.003	1683
689.17	1686
689.336	1687
689.502	1692
689.669	1689
689.835	1690
690.001	1688
690.168	1689
690.334	1688
690.5	1690
690.666	1687
690.832	1688
690.998	1694
691.164	1687
691.33	1693
691.496	1688
691.662	1692
691.828	1686
691.994	1689
692.16	1688
692.326	1682
692.492	1688
692.657	1689
692.823	1690
692.989	1687
693.155	1689
693.32	1687
693.486	1687
693.651	1689
693.817	1687
693.982	1690
694.148	1684
694.313	1690
694.479	1688
694.644	1689
694.809	1690
694.975	1688
695.14	1692
695.305	1689
695.47	1689
695.635	1688
695.801	1684
695.966	1690
696.131	1688
696.296	1688
696.461	1692
696.626	1686
696.791	1687
696.955	1687
697.12	1690
697.285	1685
697.45	1691
697.615	1690
697.779	1693
697.944	1688
698.109	1688
698.273	1686
698.438	1695
698.603	1688
698.767	1686
698.932	1690
699.096	1688
699.26	1689
699.425	1687
699.589	1688
699.754	1687
699.918	1689
700.082	1688
700.246	1691
700.411	1689
700.575	1689
700.739	1686
700.903	1690
701.067	1693
701.231	1690
701.395	1687
701.559	1692
701.723	1689
701.887	1692
702.051	1690
702.214	1689
702.378	1701
702.542	1691
702.706	1686
702.869	1690
703.033	1687
703.197	1688
703.36	1688
703.524	1690
703.687	1686
703.851	1685
704.014	1689
704.178	1690
704.341	1688
704.505	1687
704.668	1687
704.831	1688
704.994	1686
705.158	1690
705.321	1689
705.484	1687
705.647	1688
705.81	1690
705.973	1691
706.136	1688
706.299	1688
706.462	1688
706.625	1691
706.788	1689
706.951	1686
707.114	1686
707.277	1689
707.439	1686
707.602	1686
707.765	1690
707.928	1686
708.09	1686
708.253	1689
708.415	1689
708.578	1687
708.74	1684
708.903	1688
709.065	1688
709.228	1687
709.39	1690
709.552	1690
709.715	1688
709.877	1690
710.039	1689
710.201	1687
710.364	1684
710.526	1691
710.688	1692
710.85	1689
711.012	1691
711.174	1686
711.336	1690
711.498	1689
711.66	1688
711.822	1691
711.983	1687
712.145	1686
712.307	1691
712.469	1688
712.63	1684
712.792	1685
712.954	1685
713.115	1688
713.277	1687
713.438	1690
713.6	1688
713.761	1690
713.923	1686
714.084	1690
714.245	1689
714.407	1690
714.568	1691
714.729	1691
714.891	1688
715.052	1685
715.213	1687
715.374	1690
715.535	1685
715.696	1688
715.857	1691
716.018	1691
716.179	1688
716.34	1689
716.501	1688
716.662	1687
716.823	1684
716.984	1689
717.144	1691
717.305	1687
717.466	1692
717.626	1688
717.787	1685
717.948	1688
718.108	1689
718.269	1689
718.429	1689
718.59	1685
718.75	1685
718.911	1692
719.071	1690
719.231	1689
719.392	1684
719.552	1689
719.712	1690
719.872	1684
720.033	1687
720.193	1687
720.353	1692
720.513	1689
720.673	1686
720.833	1688
720.993	1686
721.153	1689
721.313	1692
721.473	1689
721.632	1688
721.792	1692
721.952	1689
722.112	1685
722.271	1684
722.431	1688
722.591	1688
722.75	1685
722.91	1687
723.069	1688
723.229	1683
723.388	1683
723.548	1693
723.707	1691
723.867	1688
724.026	1688
724.185	1693
724.344	1683
724.504	1692
724.663	1688
724.822	1689
724.981	1688
725.14	1691
725.299	1684
725.458	1687
725.617	1690
725.776	1686
725.935	1692
726.094	1693
726.253	1691
726.412	1685
726.571	1688
726.729	1687
726.888	1687
727.047	1690
727.206	1684
727.364	1690
727.523	1688
727.681	1689
727.84	1687
727.998	1687
728.157	1690
728.315	1690
728.474	1686
728.632	1691
728.79	1683
728.949	1689
729.107	1689
729.265	1685
729.423	1686
729.582	1687
729.74	1692
729.898	1686
730.056	1691
730.214	1687
730.372	1687
730.53	1689
730.688	1687
730.846	1687
731.004	1687
731.161	1689
731.319	1686
731.477	1688
731.635	1685
731.792	1688
731.95	1688
732.108	1687
732.265	1690
732.423	1689
732.58	1691
732.738	1688
732.895	1688
733.053	1690
733.21	1688
733.368	1685
733.525	1687
733.682	1689
733.839	1682
733.997	1686
734.154	1685
734.311	1686
734.468	1691
734.625	1689
734.782	1694
734.939	1688
735.096	1688
735.253	1688
735.41	1690
735.567	1691
735.724	1688
735.881	1689
736.038	1691
736.194	1688
736.351	1691
736.508	1688
736.665	1689
736.821	1686
736.978	1689
737.134	1689
737.291	1688
737.447	1684
737.604	1689
737.76	1691
737.917	1686
738.073	1687
738.229	1691
738.386	1687
738.542	1690
738.698	1687
738.854	1693
739.01	1689
739.167	1686
739.323	1688
739.479	1687
739.635	1691
739.791	1690
739.947	1693
740.103	1686
740.259	1685
740.414	1687
740.57	1689
740.726	1690
740.882	1687
741.038	1687
741.193	1689
741.349	1687
741.505	1687
741.66	1684
741.816	1686
741.971	1686
742.127	1690
742.282	1689
742.438	1689
742.593	1689
742.748	1684
742.904	1692
743.059	1685
743.214	1685
743.37	1687
743.525	1687
743.68	1689
743.835	1685
743.99	1688
744.145	1691
744.3	1691
744.455	1688
744.61	1689
744.765	1691
744.92	1690
745.075	1685
745.23	1687
745.384	1690
745.539	1687
745.694	1686
745.849	1689
746.003	1689
746.158	1691
746.313	1687
746.467	1684
746.622	1684
746.776	1690
746.931	1692
747.085	1690
747.239	1684
747.394	1690
747.548	1688
747.702	1691
747.857	1689
748.011	1688
748.165	1690
748.319	1693
748.473	1690
748.627	1689
748.781	1688
748.935	1686
749.089	1686
749.243	1685
749.397	1688
749.551	1692
749.705	1683
749.859	1687
750.013	1690
750.166	1686
750.32	1686
750.474	1685
750.628	1685
750.781	1688
750.935	1686
751.088	1689
751.242	1688
751.395	1686
751.549	1692
751.702	1687
751.856	1685
752.009	1689
752.162	1687
752.316	1689
752.469	1688
752.622	1688
752.775	1689
752.928	1685
753.082	1690
753.235	1690
753.388	1684
753.541	1686
753.694	1689
753.847	1687
754	1690
754.152	1685
754.305	1690
754.458	1690
754.611	1690
754.764	1688
754.916	1689
755.069	1686
755.222	1690
755.374	1690
755.527	1687
755.68	1688
755.832	1689
755.985	1689
756.137	1687
756.289	1689
756.442	1686
756.594	1685
756.746	1690
756.899	1689
757.051	1688
757.203	1686
757.355	1690
757.508	1690
757.66	1684
757.812	1690
757.964	1690
758.116	1689
758.268	1687
758.42	1688
758.572	1690
758.724	1689
758.875	1688
759.027	1685
759.179	1691
759.331	1686
759.482	1690
759.634	1690
759.786	1685
759.937	1688
760.089	1689
760.241	1690
760.392	1687
760.544	1686
760.695	1688
760.846	1688
760.998	1689
761.149	1690
761.3	1686
761.452	1688
761.603	1688
761.754	1690
761.905	1690
762.057	1687
762.208	1685
762.359	1691
762.51	1686
762.661	1692
762.812	1691
762.963	1693
763.114	1688
763.265	1686
763.415	1689
763.566	1689
763.717	1691
763.868	1690
764.018	1690
764.169	1686
764.32	1689
764.47	1686
764.621	1694
764.772	1692
764.922	1687
765.072	1689
765.223	1689
765.373	1690
765.524	1691
765.674	1692
765.824	1687
765.975	1688
766.125	1687
766.275	1688
766.425	1686
766.575	1689
766.726	1689
766.876	1688
767.026	1688
767.176	1686
767.326	1690
767.476	1684
767.625	1689
767.775	1686
767.925	1689
768.075	1685
768.225	1685
768.375	1685
768.524	1687
768.674	1690
768.824	1690
768.973	1688
769.123	1687
769.272	1687
769.422	1686
769.571	1689
769.721	1689
769.87	1687
770.019	1687
770.169	1687
770.318	1689
770.467	1687
770.617	1688
770.766	1689
770.915	1688
771.064	1690
771.213	1688
771.362	1688
771.511	1685
771.66	1687
771.809	1688
771.958	1690
772.107	1692
772.256	1685
772.405	1689
772.554	1686
772.702	1689
772.851	1688
773	1687
773.149	1693
773.297	1687
773.446	1689
773.594	1695
773.743	1686
773.891	1689
774.04	1687
774.188	1693
774.337	1692
774.485	1686
774.633	1686
774.782	1688
774.93	1689
775.078	1690
775.226	1689
775.375	1690
775.523	1689
775.671	1691
775.819	1691
775.967	1689
776.115	1689
776.263	1686
776.411	1688
776.559	1683
776.707	1689
776.854	1686
777.002	1687
777.15	1688
777.298	1688
777.445	1689
777.593	1689
777.741	1691
777.888	1687
778.036	1690
778.183	1690
778.331	1693
778.478	1692
778.626	1686
778.773	1686
778.92	1691
779.068	1687
779.215	1690
779.362	1688
779.51	1689
779.657	1688
779.804	1687
779.951	1684
780.098	1685
780.245	1685
780.392	1689
780.539	1686
780.686	1692
780.833	1690
780.98	1687
781.127	1690
781.274	1689
781.42	1688
781.567	1691
781.714	1688
781.861	1690
782.007	1683
782.154	1686
782.3	1685
782.447	1689
782.594	1688
782.74	1690
782.887	1687
783.033	1688
783.179	1691
783.326	1684
783.472	1691
783.618	1689
783.765	1687
783.911	1692
784.057	1691
784.203	1691
784.349	1682
784.495	1687
784.641	1687
784.787	1691
784.933	1688
785.079	1687
785.225	1687
785.371	1685
785.517	1686
785.663	1688
785.809	1692
785.954	1684
786.1	1692
786.246	1691
786.391	1689
786.537	1687
786.683	1688
786.828	1684
786.974	1687
787.119	1691
787.265	1690
787.41	1683
787.555	1687
787.701	1684
787.846	1687
787.991	1694
788.137	1688
788.282	1684
788.427	1691
788.572	1688
788.717	1688
788.862	1687
789.007	1689
789.152	1689
789.297	1687
789.442	1687
789.587	1688
789.732	1685
789.877	1690
790.022	1688
790.166	1685
790.311	1683
790.456	1687
790.601	1685
790.745	1687
790.89	1692
791.034	1686
791.179	1695
791.323	1686
791.468	1692
791.612	1687
791.757	1685
791.901	1686
792.045	1688
792.19	1686
792.334	1690
792.478	1689
792.622	1687
792.767	1691
792.911	1685
793.055	1689
793.199	1683
793.343	1691
793.487	1689
793.631	1686
793.775	1687
793.919	1687
794.063	1683
794.206	1688
794.35	1690
794.494	1687
794.638	1690
794.781	1690
794.925	1687
795.069	1689
795.212	1692
795.356	1690
795.499	1690
795.643	1686
795.786	1689
795.93	1688
796.073	1686
796.217	1690
796.36	1686
796.503	1682
796.646	1684
796.79	1688
