Data from QEP013861_16-41-33-488.txt Node
Date: Mon Jul 01 16:41:33 EDT 2019
User: xiyang
Spectrometer: QEP01386
Trigger mode: 4
Integration Time (sec): 1.000000E0
Scans to average: 1
Electric dark correction enabled: false
Nonlinearity correction enabled: false
Boxcar width: 0
XAxis mode: Wavelengths
Number of Pixels in Spectrum: 1044
>>>>>Begin Spectral Data<<<<<
629.243	1695
629.421	1686
629.599	1680
629.777	1684
629.955	1704
630.132	1700
630.31	1707
630.488	1700
630.666	1699
630.843	1707
631.021	1705
631.199	1702
631.376	1701
631.554	1706
631.731	1706
631.909	1700
632.086	1704
632.264	1711
632.441	1701
632.618	1710
632.796	1703
632.973	1707
633.15	1706
633.327	1704
633.504	1711
633.682	1710
633.859	1702
634.036	1707
634.213	1708
634.39	1705
634.567	1711
634.744	1710
634.921	1712
635.098	1706
635.274	1711
635.451	1707
635.628	1713
635.805	1710
635.982	1708
636.158	1714
636.335	1715
636.511	1711
636.688	1711
636.865	1717
637.041	1716
637.218	1714
637.394	1714
637.571	1717
637.747	1712
637.923	1713
638.1	1715
638.276	1709
638.452	1715
638.628	1709
638.805	1710
638.981	1714
639.157	1711
639.333	1712
639.509	1712
639.685	1714
639.861	1716
640.037	1713
640.213	1715
640.389	1715
640.565	1716
640.74	1715
640.916	1714
641.092	1712
641.268	1713
641.443	1716
641.619	1715
641.795	1717
641.97	1719
642.146	1724
642.321	1721
642.497	1722
642.672	1719
642.848	1720
643.023	1724
643.199	1717
643.374	1722
643.549	1722
643.724	1723
643.9	1722
644.075	1720
644.25	1721
644.425	1725
644.6	1726
644.775	1728
644.95	1726
645.125	1722
645.3	1729
645.475	1729
645.65	1727
645.825	1725
646	1725
646.175	1736
646.349	1728
646.524	1741
646.699	1725
646.874	1736
647.048	1734
647.223	1729
647.397	1747
647.572	1735
647.746	1742
647.921	1736
648.095	1738
648.27	1733
648.444	1738
648.618	1742
648.793	1740
648.967	1743
649.141	1744
649.315	1749
649.49	1747
649.664	1746
649.838	1741
650.012	1750
650.186	1754
650.36	1748
650.534	1750
650.708	1749
650.882	1754
651.056	1753
651.23	1755
651.403	1752
651.577	1759
651.751	1761
651.925	1757
652.098	1751
652.272	1759
652.446	1759
652.619	1757
652.793	1768
652.966	1771
653.14	1766
653.313	1770
653.487	1773
653.66	1776
653.833	1779
654.007	1783
654.18	1781
654.353	1784
654.526	1778
654.7	1777
654.873	1785
655.046	1784
655.219	1779
655.392	1785
655.565	1788
655.738	1789
655.911	1793
656.084	1795
656.257	1787
656.43	1796
656.602	1797
656.775	1801
656.948	1800
657.121	1803
657.293	1803
657.466	1813
657.639	1805
657.811	1817
657.984	1817
658.156	1821
658.329	1819
658.501	1823
658.674	1823
658.846	1829
659.018	1841
659.191	1834
659.363	1833
659.535	1841
659.707	1840
659.88	1848
660.052	1850
660.224	1840
660.396	1839
660.568	1864
660.74	1860
660.912	1860
661.084	1855
661.256	1868
661.428	1874
661.6	1870
661.771	1877
661.943	1876
662.115	1878
662.287	1880
662.458	1895
662.63	1897
662.802	1902
662.973	1903
663.145	1896
663.316	1918
663.488	1917
663.659	1925
663.831	1937
664.002	1940
664.174	1934
664.345	1941
664.516	1940
664.687	1941
664.859	1945
665.03	1963
665.201	1973
665.372	1966
665.543	1997
665.714	1990
665.885	1998
666.056	2000
666.227	2002
666.398	2002
666.569	2026
666.74	2033
666.911	2025
667.082	2035
667.252	2055
667.423	2072
667.594	2069
667.764	2073
667.935	2073
668.106	2073
668.276	2081
668.447	2119
668.617	2120
668.788	2122
668.958	2138
669.129	2143
669.299	2148
669.469	2160
669.64	2173
669.81	2172
669.98	2180
670.15	2193
670.321	2228
670.491	2231
670.661	2228
670.831	2231
671.001	2249
671.171	2266
671.341	2266
671.511	2293
671.681	2278
671.851	2295
672.02	2300
672.19	2320
672.36	2338
672.53	2358
672.699	2364
672.869	2376
673.039	2374
673.208	2414
673.378	2423
673.547	2437
673.717	2443
673.886	2454
674.056	2443
674.225	2477
674.395	2479
674.564	2506
674.733	2503
674.903	2529
675.072	2548
675.241	2570
675.41	2596
675.579	2575
675.748	2601
675.917	2631
676.087	2632
676.256	2663
676.425	2676
676.593	2687
676.762	2690
676.931	2713
677.1	2735
677.269	2762
677.438	2773
677.606	2785
677.775	2793
677.944	2838
678.112	2845
678.281	2852
678.45	2860
678.618	2888
678.787	2915
678.955	2926
679.124	2942
679.292	2966
679.46	2977
679.629	3008
679.797	3026
679.965	3028
680.134	3061
680.302	3090
680.47	3093
680.638	3093
680.806	3125
680.974	3122
681.142	3142
681.31	3178
681.478	3170
681.646	3162
681.814	3211
681.982	3217
682.15	3248
682.318	3233
682.486	3285
682.653	3270
682.821	3276
682.989	3309
683.156	3293
683.324	3309
683.492	3337
683.659	3338
683.827	3336
683.994	3378
684.162	3357
684.329	3374
684.496	3373
684.664	3361
684.831	3382
684.998	3372
685.166	3392
685.333	3388
685.5	3383
685.667	3397
685.834	3375
686.001	3405
686.168	3377
686.335	3378
686.502	3370
686.669	3369
686.836	3380
687.003	3354
687.17	3347
687.337	3343
687.504	3339
687.67	3351
687.837	3341
688.004	3334
688.17	3319
688.337	3333
688.504	3297
688.67	3303
688.837	3281
689.003	3277
689.17	3280
689.336	3290
689.502	3279
689.669	3275
689.835	3234
690.001	3223
690.168	3207
690.334	3195
690.5	3212
690.666	3187
690.832	3188
690.998	3165
691.164	3149
691.33	3150
691.496	3144
691.662	3141
691.828	3128
691.994	3113
692.16	3114
692.326	3089
692.492	3087
692.657	3071
692.823	3070
692.989	3069
693.155	3052
693.32	3039
693.486	3043
693.651	3040
693.817	3045
693.982	3018
694.148	3022
694.313	2995
694.479	3024
694.644	3005
694.809	3025
694.975	2973
695.14	3000
695.305	2989
695.47	2985
695.635	2994
695.801	2992
695.966	2975
696.131	2957
696.296	2972
696.461	2958
696.626	2956
696.791	2952
696.955	2967
697.12	2967
697.285	2973
697.45	2944
697.615	2958
697.779	2950
697.944	2953
698.109	2945
698.273	2943
698.438	2933
698.603	2919
698.767	2924
698.932	2937
699.096	2923
699.26	2908
699.425	2937
699.589	2938
699.754	2928
699.918	2918
700.082	2937
700.246	2922
700.411	2925
700.575	2938
700.739	2947
700.903	2924
701.067	2938
701.231	2922
701.395	2940
701.559	2931
701.723	2936
701.887	2927
702.051	2948
702.214	2945
702.378	2932
702.542	2965
702.706	2912
702.869	2942
703.033	2940
703.197	2927
703.36	2924
703.524	2959
703.687	2951
703.851	2950
704.014	2959
704.178	2960
704.341	2961
704.505	2973
704.668	2979
704.831	2955
704.994	2977
705.158	2985
705.321	2972
705.484	2963
705.647	2979
705.81	2972
705.973	2978
706.136	3016
706.299	2977
706.462	2988
706.625	2982
706.788	2997
706.951	3018
707.114	2985
707.277	3031
707.439	3013
707.602	3006
707.765	3025
707.928	3022
708.09	3033
708.253	3041
708.415	3004
708.578	3018
708.74	3023
708.903	3044
709.065	3065
709.228	3073
709.39	3057
709.552	3068
709.715	3054
709.877	3085
710.039	3085
710.201	3088
710.364	3104
710.526	3093
710.688	3095
710.85	3118
711.012	3115
711.174	3128
711.336	3133
711.498	3127
711.66	3141
711.822	3153
711.983	3152
712.145	3117
712.307	3158
712.469	3179
712.63	3149
712.792	3186
712.954	3187
713.115	3180
713.277	3192
713.438	3218
713.6	3209
713.761	3210
713.923	3206
714.084	3234
714.245	3254
714.407	3258
714.568	3285
714.729	3282
714.891	3280
715.052	3285
715.213	3275
715.374	3289
715.535	3319
715.696	3325
715.857	3326
716.018	3329
716.179	3342
716.34	3340
716.501	3360
716.662	3377
716.823	3382
716.984	3388
717.144	3395
717.305	3420
717.466	3424
717.626	3427
717.787	3409
717.948	3455
718.108	3445
718.269	3479
718.429	3446
718.59	3516
718.75	3495
718.911	3515
719.071	3536
719.231	3529
719.392	3541
719.552	3558
719.712	3564
719.872	3582
720.033	3567
720.193	3611
720.353	3615
720.513	3626
720.673	3635
720.833	3629
720.993	3627
721.153	3659
721.313	3650
721.473	3659
721.632	3657
721.792	3669
721.952	3726
722.112	3704
722.271	3705
722.431	3758
722.591	3726
722.75	3766
722.91	3773
723.069	3787
723.229	3814
723.388	3763
723.548	3827
723.707	3807
723.867	3834
724.026	3823
724.185	3849
724.344	3854
724.504	3859
724.663	3863
724.822	3881
724.981	3885
725.14	3905
725.299	3889
725.458	3946
725.617	3958
725.776	3937
725.935	3953
726.094	3949
726.253	3962
726.412	3975
726.571	4014
726.729	4024
726.888	4019
727.047	4058
727.206	4049
727.364	4029
727.523	4065
727.681	4062
727.84	4068
727.998	4085
728.157	4100
728.315	4168
728.474	4128
728.632	4111
728.79	4162
728.949	4143
729.107	4180
729.265	4188
729.423	4170
729.582	4179
729.74	4194
729.898	4209
730.056	4244
730.214	4251
730.372	4251
730.53	4255
730.688	4274
730.846	4289
731.004	4306
731.161	4324
731.319	4318
731.477	4352
731.635	4363
731.792	4355
731.95	4347
732.108	4388
732.265	4417
732.423	4360
732.58	4398
732.738	4387
732.895	4383
733.053	4430
733.21	4418
733.368	4450
733.525	4464
733.682	4501
733.839	4467
733.997	4469
734.154	4531
734.311	4479
734.468	4475
734.625	4514
734.782	4527
734.939	4535
735.096	4526
735.253	4542
735.41	4552
735.567	4549
735.724	4582
735.881	4560
736.038	4567
736.194	4564
736.351	4572
736.508	4583
736.665	4576
736.821	4562
736.978	4606
737.134	4595
737.291	4635
737.447	4630
737.604	4648
737.76	4636
737.917	4640
738.073	4659
738.229	4672
738.386	4661
738.542	4649
738.698	4676
738.854	4676
739.01	4696
739.167	4688
739.323	4679
739.479	4693
739.635	4677
739.791	4669
739.947	4682
740.103	4679
740.259	4685
740.414	4654
740.57	4713
740.726	4663
740.882	4698
741.038	4679
741.193	4672
741.349	4705
741.505	4690
741.66	4689
741.816	4689
741.971	4743
742.127	4705
742.282	4710
742.438	4738
742.593	4697
742.748	4678
742.904	4698
743.059	4663
743.214	4697
743.37	4673
743.525	4648
743.68	4663
743.835	4641
743.99	4633
744.145	4641
744.3	4624
744.455	4657
744.61	4625
744.765	4614
744.92	4598
745.075	4598
745.23	4593
745.384	4611
745.539	4569
745.694	4620
745.849	4588
746.003	4559
746.158	4612
746.313	4546
746.467	4502
746.622	4565
746.776	4545
746.931	4567
747.085	4547
747.239	4532
747.394	4566
747.548	4501
747.702	4511
747.857	4488
748.011	4464
748.165	4453
748.319	4477
748.473	4425
748.627	4437
748.781	4414
748.935	4395
749.089	4412
749.243	4404
749.397	4359
749.551	4384
749.705	4316
749.859	4328
750.013	4337
750.166	4306
750.32	4289
750.474	4309
750.628	4297
750.781	4272
750.935	4263
751.088	4250
751.242	4241
751.395	4236
751.549	4214
751.702	4199
751.856	4179
752.009	4198
752.162	4129
752.316	4120
752.469	4143
752.622	4107
752.775	4103
752.928	4088
753.082	4064
753.235	4030
753.388	4057
753.541	4059
753.694	4028
753.847	3959
754	4000
754.152	3989
754.305	3986
754.458	4001
754.611	3944
754.764	3961
754.916	3925
755.069	3902
755.222	3922
755.374	3912
755.527	3889
755.68	3867
755.832	3883
755.985	3873
756.137	3894
756.289	3806
756.442	3813
756.594	3815
756.746	3811
756.899	3799
757.051	3799
757.203	3774
757.355	3754
757.508	3731
757.66	3710
757.812	3719
757.964	3694
758.116	3674
758.268	3678
758.42	3659
758.572	3651
758.724	3680
758.875	3638
759.027	3627
759.179	3625
759.331	3607
759.482	3606
759.634	3574
759.786	3567
759.937	3550
760.089	3536
760.241	3515
760.392	3515
760.544	3559
760.695	3472
760.846	3487
760.998	3482
761.149	3489
761.3	3458
761.452	3453
761.603	3414
761.754	3401
761.905	3418
762.057	3409
762.208	3377
762.359	3383
762.51	3381
762.661	3335
762.812	3303
762.963	3347
763.114	3312
763.265	3326
763.415	3304
763.566	3306
763.717	3283
763.868	3272
764.018	3224
764.169	3244
764.32	3243
764.47	3236
764.621	3217
764.772	3204
764.922	3212
765.072	3185
765.223	3173
765.373	3179
765.524	3158
765.674	3164
765.824	3149
765.975	3115
766.125	3099
766.275	3087
766.425	3097
766.575	3089
766.726	3061
766.876	3070
767.026	3023
767.176	3023
767.326	3018
767.476	2996
767.625	2993
767.775	2991
767.925	2984
768.075	2972
768.225	2951
768.375	2936
768.524	2939
768.674	2937
768.824	2949
768.973	2914
769.123	2909
769.272	2912
769.422	2891
769.571	2880
769.721	2867
769.87	2872
770.019	2834
770.169	2867
770.318	2845
770.467	2834
770.617	2819
770.766	2798
770.915	2788
771.064	2771
771.213	2795
771.362	2764
771.511	2742
771.66	2725
771.809	2738
771.958	2705
772.107	2745
772.256	2740
772.405	2704
772.554	2700
772.702	2701
772.851	2692
773	2701
773.149	2668
773.297	2657
773.446	2648
773.594	2657
773.743	2622
773.891	2611
774.04	2617
774.188	2609
774.337	2623
774.485	2603
774.633	2618
774.782	2588
774.93	2591
775.078	2583
775.226	2588
775.375	2576
775.523	2584
775.671	2559
775.819	2554
775.967	2543
776.115	2528
776.263	2516
776.411	2511
776.559	2511
776.707	2516
776.854	2514
777.002	2496
777.15	2480
777.298	2495
777.445	2491
777.593	2474
777.741	2473
777.888	2442
778.036	2472
778.183	2456
778.331	2445
778.478	2443
778.626	2457
778.773	2427
778.92	2424
779.068	2441
779.215	2442
779.362	2423
779.51	2410
779.657	2406
779.804	2417
779.951	2417
780.098	2400
780.245	2382
780.392	2383
780.539	2392
780.686	2380
780.833	2375
780.98	2373
781.127	2384
781.274	2340
781.42	2361
781.567	2367
781.714	2338
781.861	2343
782.007	2345
782.154	2343
782.3	2341
782.447	2318
782.594	2314
782.74	2325
782.887	2337
783.033	2332
783.179	2303
783.326	2305
783.472	2309
783.618	2324
783.765	2311
783.911	2319
784.057	2282
784.203	2310
784.349	2283
784.495	2282
784.641	2270
784.787	2262
784.933	2290
785.079	2275
785.225	2268
785.371	2259
785.517	2267
785.663	2250
785.809	2244
785.954	2262
786.1	2269
786.246	2250
786.391	2257
786.537	2242
786.683	2253
786.828	2251
786.974	2234
787.119	2235
787.265	2232
787.41	2238
787.555	2224
787.701	2242
787.846	2234
787.991	2211
788.137	2200
788.282	2223
788.427	2222
788.572	2216
788.717	2203
788.862	2224
789.007	2210
789.152	2196
789.297	2205
789.442	2185
789.587	2188
789.732	2180
789.877	2220
790.022	2203
790.166	2182
790.311	2197
790.456	2196
790.601	2189
790.745	2172
790.89	2182
791.034	2163
791.179	2171
791.323	2172
791.468	2162
791.612	2156
791.757	2153
791.901	2169
792.045	2154
792.19	2163
792.334	2161
792.478	2165
792.622	2164
792.767	2158
792.911	2153
793.055	2151
793.199	2133
793.343	2159
793.487	2144
793.631	2140
793.775	2135
793.919	2138
794.063	2136
794.206	2133
794.35	2133
794.494	2125
794.638	2126
794.781	2139
794.925	2106
795.069	2113
795.212	2102
795.356	2097
795.499	2102
795.643	2084
795.786	2084
795.93	2071
796.073	2071
796.217	2079
796.36	1683
796.503	1681
796.646	1683
796.79	1680
